"20231009-Cascade-group8 - RawData"
"Wavelength nm.","Abs."
200.00, 
201.00, 
202.00, 
203.00, 
204.00, 
205.00, 
206.00, 
207.00, 
208.00, 
209.00, 
210.00, 
211.00, 
212.00, 
213.00, 
214.00, 
215.00, 
216.00, 
217.00, 
218.00, 
219.00, 
220.00, 
221.00, 
222.00, 
223.00, 
224.00, 
225.00, 
226.00, 
227.00, 
228.00, 
229.00, 
230.00, 
231.00, 
232.00, 
233.00, 
234.00, 
235.00, 
236.00, 
237.00, 
238.00, 
239.00, 
240.00, 
241.00, 
242.00, 
243.00, 
244.00, 
245.00, 
246.00, 
247.00, 
248.00, 
249.00, 
250.00,0.316
251.00,0.312
252.00,0.305
253.00,0.298
254.00,0.292
255.00,0.285
256.00,0.279
257.00,0.273
258.00,0.267
259.00,0.261
260.00,0.256
261.00,0.250
262.00,0.244
263.00,0.239
264.00,0.234
265.00,0.230
266.00,0.227
267.00,0.224
268.00,0.221
269.00,0.219
270.00,0.217
271.00,0.216
272.00,0.215
273.00,0.214
274.00,0.213
275.00,0.213
276.00,0.212
277.00,0.211
278.00,0.211
279.00,0.211
280.00,0.211
281.00,0.211
282.00,0.211
283.00,0.211
284.00,0.211
285.00,0.211
286.00,0.211
287.00,0.211
288.00,0.212
289.00,0.214
290.00,0.215
291.00,0.216
292.00,0.218
293.00,0.220
294.00,0.223
295.00,0.226
296.00,0.230
297.00,0.234
298.00,0.238
299.00,0.243
300.00,0.247
301.00,0.253
302.00,0.259
303.00,0.265
304.00,0.270
305.00,0.275
306.00,0.281
307.00,0.288
308.00,0.294
309.00,0.302
310.00,0.310
311.00,0.317
312.00,0.323
313.00,0.330
314.00,0.335
315.00,0.342
316.00,0.349
317.00,0.354
318.00,0.360
319.00,0.367
320.00,0.374
321.00,0.377
322.00,0.380
323.00,0.385
324.00,0.389
325.00,0.391
326.00,0.394
327.00,0.397
328.00,0.400
329.00,0.403
330.00,0.404
331.00,0.404
332.00,0.406
333.00,0.409
334.00,0.409
335.00,0.409
336.00,0.410
337.00,0.410
338.00,0.411
339.00,0.411
340.00,0.411
341.00,0.411
342.00,0.413
343.00,0.414
344.00,0.413
345.00,0.413
346.00,0.413
347.00,0.412
348.00,0.413
349.00,0.414
350.00,0.416
351.00,0.418
352.00,0.419
353.00,0.420
354.00,0.421
355.00,0.421
356.00,0.421
357.00,0.422
358.00,0.422
359.00,0.420
360.00,0.418
361.00,0.416
362.00,0.412
363.00,0.408
364.00,0.406
365.00,0.401
366.00,0.393
367.00,0.386
368.00,0.378
369.00,0.369
370.00,0.360
371.00,0.350
372.00,0.339
373.00,0.327
374.00,0.315
375.00,0.303
376.00,0.291
377.00,0.279
378.00,0.268
379.00,0.256
380.00,0.244
381.00,0.233
382.00,0.222
383.00,0.211
384.00,0.201
385.00,0.191
386.00,0.182
387.00,0.173
388.00,0.165
389.00,0.158
390.00,0.151
391.00,0.145
392.00,0.139
393.00,0.136
394.00,0.130
395.00,0.124
396.00,0.120
397.00,0.117
398.00,0.113
399.00,0.109
400.00,0.106
401.00,0.103
402.00,0.100
403.00,0.097
404.00,0.094
405.00,0.091
406.00,0.089
407.00,0.087
408.00,0.084
409.00,0.082
410.00,0.081
411.00,0.079
412.00,0.077
413.00,0.076
414.00,0.074
415.00,0.073
416.00,0.072
417.00,0.071
418.00,0.070
419.00,0.069
420.00,0.068
421.00,0.068
422.00,0.067
423.00,0.066
424.00,0.065
425.00,0.064
426.00,0.063
427.00,0.063
428.00,0.063
429.00,0.062
430.00,0.061
431.00,0.061
432.00,0.060
433.00,0.059
434.00,0.058
435.00,0.057
436.00,0.057
437.00,0.056
438.00,0.055
439.00,0.054
440.00,0.053
441.00,0.052
442.00,0.052
443.00,0.051
444.00,0.050
445.00,0.049
446.00,0.048
447.00,0.048
448.00,0.047
449.00,0.046
450.00,0.045
451.00,0.044
452.00,0.043
453.00,0.042
454.00,0.041
455.00,0.040
456.00,0.039
457.00,0.038
458.00,0.038
459.00,0.037
460.00,0.036
461.00,0.035
462.00,0.035
463.00,0.034
464.00,0.033
465.00,0.032
466.00,0.031
467.00,0.031
468.00,0.030
469.00,0.029
470.00,0.028
471.00,0.027
472.00,0.026
473.00,0.025
474.00,0.025
475.00,0.024
476.00,0.023
477.00,0.022
478.00,0.021
479.00,0.020
480.00,0.019
481.00,0.018
482.00,0.018
483.00,0.017
484.00,0.016
485.00,0.015
486.00,0.015
487.00,0.014
488.00,0.013
489.00,0.013
490.00,0.012
491.00,0.011
492.00,0.011
493.00,0.010
494.00,0.009
495.00,0.009
496.00,0.009
497.00,0.008
498.00,0.008
499.00,0.007
500.00,0.007
501.00, 
502.00, 
503.00, 
504.00, 
505.00, 
506.00, 
507.00, 
508.00, 
509.00, 
510.00, 
511.00, 
512.00, 
513.00, 
514.00, 
515.00, 
516.00, 
517.00, 
518.00, 
519.00, 
520.00, 
521.00, 
522.00, 
523.00, 
524.00, 
525.00, 
526.00, 
527.00, 
528.00, 
529.00, 
530.00, 
531.00, 
532.00, 
533.00, 
534.00, 
535.00, 
536.00, 
537.00, 
538.00, 
539.00, 
540.00, 
541.00, 
542.00, 
543.00, 
544.00, 
545.00, 
546.00, 
547.00, 
548.00, 
549.00, 
550.00, 
551.00, 
552.00, 
553.00, 
554.00, 
555.00, 
556.00, 
557.00, 
558.00, 
559.00, 
560.00, 
561.00, 
562.00, 
563.00, 
564.00, 
565.00, 
566.00, 
567.00, 
568.00, 
569.00, 
570.00, 
571.00, 
572.00, 
573.00, 
574.00, 
575.00, 
576.00, 
577.00, 
578.00, 
579.00, 
580.00, 
581.00, 
582.00, 
583.00, 
584.00, 
585.00, 
586.00, 
587.00, 
588.00, 
589.00, 
590.00, 
591.00, 
592.00, 
593.00, 
594.00, 
595.00, 
596.00, 
597.00, 
598.00, 
599.00, 
600.00, 
601.00, 
602.00, 
603.00, 
604.00, 
605.00, 
606.00, 
607.00, 
608.00, 
609.00, 
610.00, 
611.00, 
612.00, 
613.00, 
614.00, 
615.00, 
616.00, 
617.00, 
618.00, 
619.00, 
620.00, 
621.00, 
622.00, 
623.00, 
624.00, 
625.00, 
626.00, 
627.00, 
628.00, 
629.00, 
630.00, 
631.00, 
632.00, 
633.00, 
634.00, 
635.00, 
636.00, 
637.00, 
638.00, 
639.00, 
640.00, 
641.00, 
642.00, 
643.00, 
644.00, 
645.00, 
646.00, 
647.00, 
648.00, 
649.00, 
650.00, 
651.00, 
652.00, 
653.00, 
654.00, 
655.00, 
656.00, 
657.00, 
658.00, 
659.00, 
660.00, 
661.00, 
662.00, 
663.00, 
664.00, 
665.00, 
666.00, 
667.00, 
668.00, 
669.00, 
670.00, 
671.00, 
672.00, 
673.00, 
674.00, 
675.00, 
676.00, 
677.00, 
678.00, 
679.00, 
680.00, 
681.00, 
682.00, 
683.00, 
684.00, 
685.00, 
686.00, 
687.00, 
688.00, 
689.00, 
690.00, 
691.00, 
692.00, 
693.00, 
694.00, 
695.00, 
696.00, 
697.00, 
698.00, 
699.00, 
700.00, 
701.00, 
702.00, 
703.00, 
704.00, 
705.00, 
706.00, 
707.00, 
708.00, 
709.00, 
710.00, 
711.00, 
712.00, 
713.00, 
714.00, 
715.00, 
716.00, 
717.00, 
718.00, 
719.00, 
720.00, 
721.00, 
722.00, 
723.00, 
724.00, 
725.00, 
726.00, 
727.00, 
728.00, 
729.00, 
730.00, 
731.00, 
732.00, 
733.00, 
734.00, 
735.00, 
736.00, 
737.00, 
738.00, 
739.00, 
740.00, 
741.00, 
742.00, 
743.00, 
744.00, 
745.00, 
746.00, 
747.00, 
748.00, 
749.00, 
750.00, 
751.00, 
752.00, 
753.00, 
754.00, 
755.00, 
756.00, 
757.00, 
758.00, 
759.00, 
760.00, 
761.00, 
762.00, 
763.00, 
764.00, 
765.00, 
766.00, 
767.00, 
768.00, 
769.00, 
770.00, 
771.00, 
772.00, 
773.00, 
774.00, 
775.00, 
776.00, 
777.00, 
778.00, 
779.00, 
780.00, 
781.00, 
782.00, 
783.00, 
784.00, 
785.00, 
786.00, 
787.00, 
788.00, 
789.00, 
790.00, 
791.00, 
792.00, 
793.00, 
794.00, 
795.00, 
796.00, 
797.00, 
798.00, 
799.00, 
800.00, 
